Method:,Hadamard,,
Host Date-Time:,6/5/18 @ 16:41:10,,
Header Version:,1,,
System Temp hundredths:,3095,,
Detector Temp hundredths:,2976,,
Humidity hundredths:,3864,,
Lamp PD:,3754,,
Shift Vector Coefficients:,-12.3419,0.0873806,-0.000149817,,
Pixel to Wavelength Coefficients:,1814.65,-0.922138,-0.000231252,,
Serial Number:,5490081,,
Scan Config Name:,Hadamard,,
Scan Config Type:,1,,
Start wavelength in nm:,900,,
End wavelength in nm:,1700,,
Pattern Pixel Width:,7,,
Number of Measurement points:,228,,
Num Repeats:,6,,
PGA Gain:,16,,
Total Measurement Time (s):,2,,
Wavelength (nm),Absorbance (AU),Reference Signal (unitless),Sample Signal (unitless)
900.397851,-0.050304,10757.000000,12078.000000
904.302718,-0.024485,12276.000000,12988.000000
908.203423,-0.042008,13647.000000,15033.000000
912.099965,-0.013743,15116.000000,15602.000000
917.288880,-0.019708,17577.000000,18393.000000
921.175709,-0.013402,19975.000000,20601.000000
925.058377,-0.021001,23010.000000,24150.000000
928.936881,-0.009451,26499.000000,27082.000000
932.811223,-0.010192,30111.000000,30826.000000
936.681403,-0.015339,33573.000000,34780.000000
940.547420,-0.011227,36734.000000,37696.000000
944.409274,-0.008953,39705.000000,40532.000000
948.266966,-0.017531,42507.000000,44258.000000
952.120496,-0.015950,45389.000000,47087.000000
955.969862,-0.016548,48328.000000,50205.000000
961.095876,-0.005984,52396.000000,53123.000000
964.935531,-0.011139,55619.000000,57064.000000
968.771023,-0.006506,59031.000000,59922.000000
972.602352,-0.011310,62462.000000,64110.000000
976.429518,-0.002395,65997.000000,66362.000000
980.252523,-0.005651,69483.000000,70393.000000
984.071364,-0.004854,72960.000000,73780.000000
987.886043,-0.001197,76447.000000,76658.000000
991.696560,-0.004296,79577.000000,80368.000000
995.502914,-0.004111,82435.000000,83219.000000
999.305106,-0.005965,85322.000000,86502.000000
1004.368219,-0.006607,88722.000000,90082.000000
1008.160698,-0.005789,90848.000000,92067.000000
1011.949015,-0.007055,92627.000000,94144.000000
1015.733168,-0.006922,94052.000000,95563.000000
1019.513160,-0.008123,95186.000000,96983.000000
1023.288989,-0.006618,95929.000000,97402.000000
1027.060655,-0.008372,96486.000000,98364.000000
1030.828159,-0.010563,96746.000000,99128.000000
1034.591500,-0.008425,96839.000000,98736.000000
1038.350679,-0.011086,96770.000000,99272.000000
1042.105695,-0.011940,96538.000000,99229.000000
1047.105908,-0.010372,96072.000000,98394.000000
1050.851212,-0.011771,95908.000000,98543.000000
1054.592353,-0.015217,95540.000000,98947.000000
1058.329331,-0.015024,95088.000000,98435.000000
1062.062147,-0.015214,94860.000000,98242.000000
1065.790801,-0.016479,94847.000000,98515.000000
1069.515292,-0.015873,94826.000000,98356.000000
1073.235620,-0.016155,94724.000000,98314.000000
1076.951786,-0.019149,94702.000000,98971.000000
1080.663789,-0.017017,94917.000000,98710.000000
1084.371630,-0.018898,95179.000000,99412.000000
1089.308943,-0.020806,95205.000000,99877.000000
1093.007071,-0.023295,95494.000000,100756.000000
1096.701037,-0.021911,95910.000000,100873.000000
1100.390840,-0.020830,96131.000000,100854.000000
1104.076481,-0.019346,96194.000000,100576.000000
1107.757959,-0.018297,96326.000000,100471.000000
1111.435274,-0.017044,96541.000000,100405.000000
1115.108427,-0.018515,96617.000000,100825.000000
1118.777418,-0.017547,96578.000000,100560.000000
1122.442246,-0.015125,96588.000000,100011.000000
1126.102912,-0.017598,96533.000000,100525.000000
1130.977324,-0.013464,96419.000000,99455.000000
1134.628277,-0.013959,96439.000000,99589.000000
1138.275067,-0.010652,96451.000000,98846.000000
1141.917695,-0.007874,96414.000000,98178.000000
1145.556160,-0.005336,96416.000000,97608.000000
1149.190463,-0.006473,96359.000000,97806.000000
1152.820603,-0.002918,96422.000000,97072.000000
1156.446581,-0.000283,96566.000000,96629.000000
1160.068396,0.002166,96699.000000,96218.000000
1163.686049,0.004814,96877.000000,95809.000000
1167.299539,0.008618,97163.000000,95254.000000
1172.111051,0.011931,97755.000000,95106.000000
1175.714828,0.014652,98357.000000,95094.000000
1179.314443,0.012736,99028.000000,96166.000000
1182.909896,0.016895,99933.000000,96120.000000
1186.501186,0.018204,100976.000000,96831.000000
1190.088313,0.018342,102215.000000,97988.000000
1193.671278,0.016894,103449.000000,99502.000000
1197.250081,0.017067,104757.000000,100720.000000
1200.824720,0.018770,106007.000000,101523.000000
1204.395198,0.018465,107503.000000,103028.000000
1207.961512,0.018701,109096.000000,104498.000000
1212.710124,0.020955,111348.000000,106103.000000
1216.266726,0.018379,113064.000000,108379.000000
1219.819166,0.017439,114939.000000,110415.000000
1223.367443,0.018773,116867.000000,111923.000000
1226.911558,0.018468,118707.000000,113765.000000
1230.451510,0.016777,120651.000000,116079.000000
1233.987299,0.016022,122831.000000,118382.000000
1237.518926,0.016987,124926.000000,120134.000000
1241.046391,0.015083,127058.000000,122721.000000
1244.569693,0.014554,129291.000000,125030.000000
1248.088832,0.010559,131595.000000,128434.000000
1252.774543,0.011874,134667.000000,131035.000000
1256.283970,0.013052,136660.000000,132614.000000
1259.789234,0.013481,138655.000000,134417.000000
1263.290336,0.012075,140472.000000,136620.000000
1266.787275,0.012790,142316.000000,138186.000000
1270.280052,0.010158,144126.000000,140794.000000
1273.768666,0.010651,146663.000000,143110.000000
1277.253118,0.009257,150166.000000,146999.000000
1280.733407,0.010039,154047.000000,150527.000000
1284.209534,0.008385,157716.000000,154700.000000
1287.681498,0.005457,161048.000000,159037.000000
1292.304308,0.006854,165341.000000,162752.000000
1295.766560,0.006565,168047.000000,165526.000000
1299.224649,0.006328,170402.000000,167937.000000
1302.678575,0.005061,172782.000000,170780.000000
1306.128339,0.006173,174935.000000,172466.000000
1309.573940,0.008261,176725.000000,173395.000000
1313.015379,0.007706,178264.000000,175129.000000
1316.452656,0.008815,179762.000000,176150.000000
1319.885770,0.011592,181021.000000,176253.000000
1323.314721,0.011156,181821.000000,177210.000000
1326.739510,0.013000,182395.000000,177016.000000
1331.299419,0.016533,183253.000000,176408.000000
1334.714496,0.017654,183638.000000,176323.000000
1338.125409,0.021154,183563.000000,174836.000000
1341.532160,0.022679,183409.000000,174077.000000
1344.934749,0.026549,183307.000000,172437.000000
1348.333175,0.029219,182891.000000,170991.000000
1351.727439,0.033421,182046.000000,168562.000000
1355.117540,0.038526,181026.000000,165659.000000
1358.503478,0.040584,179849.000000,163804.000000
1361.885254,0.042421,178683.000000,162055.000000
1365.262867,0.044682,177377.000000,160035.000000
1369.759877,0.048082,175414.000000,157030.000000
1373.127778,0.050275,174134.000000,155099.000000
1376.491516,0.050289,173137.000000,154206.000000
1379.851092,0.052286,172426.000000,152868.000000
1383.206505,0.053477,172084.000000,152147.000000
1386.557756,0.057691,172139.000000,150726.000000
1389.904844,0.061420,172194.000000,149485.000000
1393.247769,0.065575,172049.000000,147937.000000
1396.586533,0.072231,171827.000000,145499.000000
1399.921133,0.077041,171640.000000,143740.000000
1403.251571,0.083128,171481.000000,141608.000000
1407.685680,0.092471,171148.000000,138325.000000
1411.006406,0.103671,171079.000000,134749.000000
1414.322969,0.113724,170991.000000,131598.000000
1417.635369,0.122909,170881.000000,128761.000000
1420.943607,0.132079,170720.000000,125952.000000
1424.247682,0.140166,170685.000000,123603.000000
1427.547595,0.147804,170790.000000,121523.000000
1430.843345,0.153425,170905.000000,120041.000000
1434.134933,0.153459,170830.000000,119979.000000
1437.422358,0.159748,170915.000000,118313.000000
1440.705621,0.162185,170956.000000,117679.000000
1445.076830,0.166628,171004.000000,116514.000000
1448.350380,0.168254,170838.000000,115966.000000
1451.619767,0.170503,170625.000000,115223.000000
1454.884993,0.173894,170313.000000,114118.000000
1458.146055,0.179191,169927.000000,112479.000000
1461.402955,0.180908,169493.000000,111749.000000
1464.655693,0.187136,168956.000000,109809.000000
1467.904268,0.187025,168307.000000,109415.000000
1471.148680,0.190256,167693.000000,108208.000000
1474.388930,0.192591,167134.000000,107269.000000
1477.625017,0.191571,166498.000000,107112.000000
1481.933325,0.193362,165605.000000,106099.000000
1485.159700,0.191779,164923.000000,106048.000000
1488.381912,0.195096,164188.000000,104772.000000
1491.599962,0.195977,163416.000000,104068.000000
1494.813849,0.195085,162526.000000,103714.000000
1498.023574,0.193113,161571.000000,103574.000000
1501.229136,0.192164,160574.000000,103160.000000
1504.430536,0.191662,159574.000000,102636.000000
1507.627773,0.187360,158592.000000,103020.000000
1510.820847,0.186887,157423.000000,102372.000000
1514.009759,0.186023,156226.000000,101796.000000
1518.255167,0.188721,154698.000000,100176.000000
1521.434366,0.188373,153531.000000,99500.000000
1524.609403,0.188906,152303.000000,98583.000000
1527.780278,0.184344,150930.000000,98726.000000
1530.946990,0.187051,149520.000000,97196.000000
1534.109539,0.187619,148083.000000,96136.000000
1537.267926,0.190398,146705.000000,94634.000000
1540.422150,0.189068,145249.000000,93982.000000
1543.572212,0.186309,143644.000000,93536.000000
1546.718111,0.183832,142018.000000,93006.000000
1549.859847,0.184283,140299.000000,91785.000000
1554.042355,0.184119,138148.000000,90412.000000
1557.174379,0.187120,136446.000000,88683.000000
1560.302240,0.185312,134592.000000,87843.000000
1563.425939,0.187792,132737.000000,86139.000000
1566.545476,0.183718,130997.000000,85811.000000
1569.660850,0.185583,129074.000000,84189.000000
1572.772061,0.186504,127180.000000,82778.000000
1575.879110,0.187393,125216.000000,81333.000000
1578.981997,0.186139,123151.000000,80223.000000
1582.080720,0.189564,121129.000000,78286.000000
1585.175282,0.191122,119055.000000,76670.000000
1589.294888,0.189569,116258.000000,75137.000000
1592.379737,0.187122,114040.000000,74120.000000
1595.460423,0.190472,111960.000000,72209.000000
1598.536947,0.187137,109782.000000,71350.000000
1601.609308,0.191048,107628.000000,69323.000000
1604.677507,0.184322,105500.000000,69013.000000
1607.741543,0.183634,103155.000000,67586.000000
1610.801417,0.184884,100841.000000,65880.000000
1613.857128,0.178597,98624.000000,65371.000000
1616.908676,0.180262,96425.000000,63669.000000
1619.956062,0.181942,94117.000000,61905.000000
1624.012768,0.174813,91062.000000,60887.000000
1627.050442,0.174681,88838.000000,59418.000000
1630.083953,0.177306,86621.000000,57586.000000
1633.113301,0.173817,84376.000000,56546.000000
1636.138487,0.174778,82037.000000,54857.000000
1639.159510,0.171072,79789.000000,53811.000000
1642.176371,0.177871,77641.000000,51549.000000
1645.189069,0.172699,75244.000000,50556.000000
1648.197605,0.169165,72653.000000,49214.000000
1651.201978,0.163441,69885.000000,47967.000000
1654.202188,0.160004,66871.000000,46263.000000
1658.195994,0.163194,62323.000000,42801.000000
1661.186492,0.165908,58438.000000,39883.000000
1664.172828,0.160756,54103.000000,37365.000000
1667.155001,0.155969,49112.000000,34294.000000
1670.133011,0.154054,43793.000000,30715.000000
1673.106859,0.155140,38261.000000,26768.000000
1676.076545,0.137567,32903.000000,23970.000000
1679.042067,0.136522,28053.000000,20486.000000
1682.003428,0.141712,23774.000000,17155.000000
1684.960626,0.164004,20126.000000,13796.000000
1687.913661,0.133770,17073.000000,12547.000000
1691.844566,0.145694,13814.000000,9877.000000
1694.787889,0.163526,11821.000000,8112.000000
1697.727049,0.176049,10202.000000,6802.000000
1700.662047,0.164962,8803.000000,6021.000000
